Sensor Model:   RuO2_1.5K
Serial Number:  RuO2David
Data Format:    4      (Log Ohms vs. Kelvin)
SetPoint Limit: 300.0      (Kelvin)
Temperature coefficient:  1 (Negative)
Number of Breakpoints:   66

No.   Units      Temperature (K)

  1  3.10298       300.000
  2  3.10298       280.000
  3  3.10298       260.000
  4  3.10299       240.000
  5  3.10299       220.000
  6  3.10299       200.000
  7  3.10300       190.000
  8  3.10301       180.000
  9  3.10302       170.000
 10  3.10305       160.000
 11  3.10308       150.000
 12  3.10314       140.000
 13  3.10323       130.000
 14  3.10337       120.000
 15  3.10359       110.000
 16  3.10394       100.000
 17  3.10419        95.000
 18  3.10449        90.000
 19  3.10488        85.000
 20  3.10536        80.000
 21  3.10596        75.000
 22  3.10672        70.000
 23  3.10767        65.000
 24  3.10885        60.000
 25  3.11034        55.000
 26  3.11220        50.000
 27  3.11452        45.000
 28  3.11741        40.000
 29  3.12102        35.000
 30  3.12551        30.000
 31  3.12760        28.000
 32  3.12989        26.000
 33  3.13240        24.000
 34  3.13517        22.000
 35  3.13825        20.000
 36  3.14174        18.000
 37  3.14583        16.000
 38  3.15085        14.000
 39  3.15747        12.000
 40  3.16698        10.000
 41  3.17352         9.000
 42  3.18186         8.000
 43  3.19263         7.000
 44  3.20670         6.000
 45  3.21530         5.500
 46  3.23646         4.500
 47  3.24401         4.200
 48  3.24939         4.000
 49  3.25653         3.750
 50  3.26415         3.500
 51  3.27229         3.250
 52  3.28097         3.000
 53  3.28833         2.800
 54  3.29606         2.600
 55  3.30418         2.400
 56  3.31271         2.200
 57  3.32166         2.000
 58  3.32629         1.900
 59  3.33104         1.800
 60  3.33589         1.700
 61  3.34086         1.600
 62  3.34339         1.550
 63  3.35115         1.400
 64  3.35647         1.300
 65  3.36190         1.200
 66  3.36746         1.100
